StartTime: 2018-11-29 21:44:00.762
Time(s)	ax(g)	ay(g)	az(g)	wx(deg/s)	wy(deg/s)	wz(deg/s)	AngleX(deg)	AngleY(deg)	AngleZ(deg)	T(Â°)	hx	hy	hz 
111.236	-0.0620	0.0181	1.0010	-0.0610	1.5259	-0.5493	-0.8899	6.1414	80.0299	39.9500	192	25	-284 
111.252	-0.0742	0.0112	1.0195	-0.6104	2.8687	-1.5869	-0.8844	6.1633	80.0189	39.9500	194	26	-285 
111.268	-0.0884	0.0112	1.0405	-1.1597	2.5024	-2.0752	-0.8899	6.1963	79.9860	39.9400	193	26	-285 
111.283	-0.0879	0.0254	1.0444	-0.9155	0.9766	-2.1362	-0.8899	6.2073	79.9255	39.9600	192	26	-286 
111.299	-0.0830	0.0386	1.0283	-1.0986	-0.3662	-1.8921	-0.8844	6.1908	79.8651	39.9500	191	27	-285 
111.315	-0.0664	0.0454	1.0059	-1.2817	0.1221	0.0000	-0.8679	6.1633	79.8157	39.9300	191	27	-286 
111.330	-0.0562	0.0273	1.0015	-1.6479	1.0376	0.7324	-0.8624	6.1414	79.7992	39.9300	192	29	-286 
111.361	-0.0508	0.0127	0.9902	-2.8687	1.5869	0.3052	-0.8844	6.1304	79.8047	39.9400	193	28	-284 
111.377	-0.0522	0.0073	0.9868	-3.1738	2.5024	0.0000	-0.9283	6.1414	79.8102	39.9500	193	28	-281 
111.393	-0.0601	-0.0103	1.0015	-2.1973	3.7842	-0.6714	-0.9723	6.1688	79.8322	39.9300	194	26	-280 
111.455	-0.0708	-0.0068	1.0137	-2.8687	4.2725	-1.4648	-1.0217	6.2238	79.8322	39.9400	194	26	-280 
111.471	-0.0859	-0.0010	1.0278	-2.4414	4.4556	-1.8921	-1.0712	6.2897	79.8157	39.9400	191	27	-280 
111.471	-0.0908	0.0034	1.0298	-1.6479	4.2114	-1.5259	-1.0986	6.3556	79.7882	39.9400	191	28	-279 
111.471	-0.0947	0.0020	1.0342	-0.7324	3.4790	-1.2817	-1.1096	6.4215	79.7607	39.9400	192	30	-278 
111.486	-0.0967	0.0171	1.0381	-0.6714	2.9297	-1.4648	-1.1041	6.4655	79.7168	39.9500	193	31	-280 
111.518	-0.1011	0.0127	1.0444	0.1831	1.8311	-0.5493	-1.0876	6.4984	79.6783	39.9400	194	30	-281 
111.533	-0.0981	0.0059	1.0454	0.1831	0.7324	-0.4883	-1.0657	6.5094	79.6674	39.9300	195	28	-283 
111.549	-0.0986	0.0210	1.0410	0.9155	-0.3662	-0.3052	-1.0327	6.4929	79.6399	39.9600	195	29	-282 
111.568	-0.0918	0.0186	1.0371	1.6479	-1.2207	0.1831	-0.9833	6.4600	79.6289	39.9600	193	29	-280 
111.583	-0.0776	0.0176	1.0195	1.4648	-1.9531	0.3052	-0.9283	6.4050	79.6344	39.9300	194	27	-280 
111.645	-0.0723	0.0156	1.0059	1.4038	-1.0376	0.8545	-0.8734	6.3501	79.6509	39.9500	195	26	-281 
111.645	-0.0718	-0.0068	1.0200	-0.3052	-0.7935	-0.4883	-0.8569	6.3062	79.6893	39.9500	195	26	-283 
111.661	-0.0679	0.0112	1.0161	-0.3052	-1.5869	-1.7090	-0.8514	6.2567	79.6783	39.9500	194	26	-282 
111.677	-0.0557	0.0386	0.9917	-0.7324	-1.4038	-2.5024	-0.8350	6.1853	79.6344	39.9300	194	26	-284 
111.692	-0.0493	0.0439	0.9761	-1.1597	-0.1831	-2.1973	-0.8185	6.1359	79.5685	39.9500	194	26	-285 
111.708	-0.0591	0.0220	1.0103	-1.7090	1.5869	-2.2583	-0.8185	6.1194	79.5245	39.9700	193	26	-285 
111.739	-0.0669	0.0239	1.0225	-3.8452	1.1597	-3.6621	-0.8624	6.1139	79.4586	39.9500	192	27	-284 
111.755	-0.0640	0.0371	1.0034	-4.9438	0.8545	-4.0894	-0.9338	6.1029	79.3707	39.9500	194	26	-284 
111.770	-0.0605	0.0391	0.9980	-4.0894	1.8921	-1.9531	-0.9888	6.0974	79.2993	39.9500	193	26	-286 
111.802	-0.0625	0.0068	1.0098	-3.8452	3.7842	0.6104	-1.0382	6.1304	79.2938	39.9600	193	28	-286 
111.848	-0.0728	-0.0220	1.0254	-3.4790	4.2725	0.4272	-1.1041	6.1853	79.3378	39.9500	194	28	-285 
111.864	-0.0859	-0.0371	1.0356	-1.7700	3.1738	-1.0986	-1.1646	6.2402	79.3872	39.9500	192	28	-283 
111.864	-0.0845	-0.0234	1.0303	-1.0376	2.3193	-2.1362	-1.2030	6.2732	79.3927	39.9600	192	29	-283 
111.880	-0.0786	0.0127	1.0269	0.5493	1.8311	-2.1973	-1.1975	6.2897	79.3542	39.9500	194	29	-283 
111.895	-0.0776	0.0361	1.0181	0.4883	1.7090	-1.7090	-1.1591	6.3007	79.2938	39.9600	195	31	-282 
111.911	-0.0815	0.0347	1.0186	0.1221	2.5024	-0.3052	-1.1151	6.3171	79.2499	39.9400	196	29	-283 
111.927	-0.0835	0.0288	1.0215	0.0000	2.3804	0.0000	-1.0822	6.3501	79.2389	39.9400	195	27	-283 
111.958	-0.0820	0.0205	1.0220	-0.3662	2.1973	0.1221	-1.0602	6.3721	79.2334	39.9600	195	27	-282 
111.973	-0.0771	0.0176	1.0195	-0.5493	1.8311	0.0000	-1.0437	6.3885	79.2334	39.9500	195	28	-282 
111.989	-0.0728	0.0181	1.0059	-0.8545	2.0142	0.0610	-1.0327	6.3995	79.2334	39.9500	193	28	-283 
112.005	-0.0752	0.0186	1.0088	-1.2817	2.5635	0.0610	-1.0272	6.4160	79.2224	39.9600	195	31	-283 
112.083	-0.0747	0.0146	1.0107	-1.0986	2.9907	0.7324	-1.0272	6.4435	79.2169	39.9500	195	32	-284 
112.098	-0.0781	0.0078	1.0190	-1.4648	3.1128	0.7935	-1.0272	6.4819	79.2279	39.9600	197	30	-284 
112.098	-0.0806	0.0088	1.0215	-1.3428	2.6855	0.0000	-1.0437	6.5149	79.2334	39.9500	195	30	-282 
112.098	-0.0854	0.0093	1.0234	-1.0986	2.6245	-0.1221	-1.0437	6.5424	79.2334	39.9600	194	29	-284 
112.114	-0.0889	0.0122	1.0234	-2.6855	2.3804	-0.4883	-1.0657	6.5698	79.2224	39.9700	192	29	-285 
112.130	-0.0903	0.0005	1.0259	-2.0752	2.5024	0.0610	-1.0931	6.6028	79.2169	39.9700	192	32	-285 
112.145	-0.0918	0.0034	1.0308	-0.7324	1.6479	0.5493	-1.1096	6.6193	79.2169	39.9500	193	32	-284 
112.177	-0.0923	0.0049	1.0366	-0.7935	1.2817	0.0610	-1.1096	6.6302	79.2224	39.9700	194	31	-284 
112.192	-0.0908	0.0225	1.0254	0.2441	0.5493	0.5493	-1.0876	6.6302	79.2114	39.9700	194	31	-284 
112.223	-0.0894	0.0215	1.0313	-0.3052	0.6104	0.6714	-1.0602	6.6193	79.2114	39.9600	195	29	-284 
112.238	-0.0811	0.0303	1.0239	-1.2207	-0.6104	0.1831	-1.0492	6.5973	79.2004	39.9500	195	30	-283 
112.254	-0.0693	0.0322	1.0024	-0.8545	-0.4883	0.7324	-1.0382	6.5588	79.1949	39.9600	194	30	-283 
112.270	-0.0630	0.0142	0.9888	-0.7935	0.9766	1.8921	-1.0162	6.5259	79.2114	39.9600	194	30	-284 
112.285	-0.0654	-0.0015	1.0020	-1.8921	2.0752	1.4648	-1.0217	6.5259	79.2609	39.9600	195	28	-282 
112.317	-0.0723	0.0020	1.0059	-2.3193	2.4414	0.3052	-1.0547	6.5424	79.3048	39.9700	197	26	-283 
112.332	-0.0806	-0.0098	1.0186	-1.7700	2.8076	0.2441	-1.0876	6.5643	79.3378	39.9500	196	27	-283 
112.348	-0.0913	0.0015	1.0298	-1.3428	2.4414	-0.6714	-1.1041	6.5973	79.3488	39.9700	197	29	-285 
112.363	-0.0972	0.0127	1.0391	-1.2207	1.9531	-0.5493	-1.1096	6.6248	79.3323	39.9600	196	30	-284 
112.395	-0.0962	0.0205	1.0366	-1.4648	0.7935	-0.4272	-1.1096	6.6357	79.3158	39.9600	196	29	-286 
112.457	-0.0942	0.0347	1.0313	-0.9155	0.1221	-0.1221	-1.1096	6.6248	79.2883	39.9700	196	30	-285 
112.473	-0.0903	0.0234	1.0293	0.7935	0.0000	1.5869	-1.0657	6.6083	79.2828	39.9700	195	30	-284 
112.473	-0.0796	0.0205	1.0171	0.1221	-0.3052	1.2817	-1.0272	6.5863	79.2993	39.9500	192	30	-285 
112.473	-0.0742	0.0137	1.0098	-0.7324	-0.2441	1.8311	-1.0107	6.5533	79.3213	39.9400	193	29	-286 
112.488	-0.0752	-0.0024	1.0176	-0.8545	0.0000	1.8311	-0.9998	6.5204	79.3652	39.9500	194	30	-286 
112.504	-0.0698	-0.0010	1.0078	-1.8311	0.1221	1.2207	-1.0217	6.4929	79.4037	39.9400	195	30	-285 
112.535	-0.0732	-0.0107	1.0171	-0.7935	0.7324	1.3428	-1.0382	6.4764	79.4476	39.9600	198	30	-285 
112.551	-0.0723	0.0073	1.0146	-1.3428	0.0610	-0.7324	-1.0492	6.4545	79.4696	39.9700	195	29	-285 
112.567	-0.0742	0.0132	1.0127	-0.5493	0.7324	-0.4272	-1.0492	6.4325	79.4641	39.9600	195	28	-286 
112.645	-0.0771	0.0171	1.0146	-0.6104	0.8545	-0.4883	-1.0327	6.4270	79.4531	39.9700	196	31	-285 
112.660	-0.0771	0.0254	1.0117	-0.9766	1.4038	-0.0610	-1.0217	6.4215	79.4202	39.9800	194	33	-285 
112.660	-0.0815	0.0181	1.0254	-1.2207	1.5259	0.2441	-1.0217	6.4270	79.4037	39.9700	195	33	-288 
112.660	-0.0850	0.0225	1.0273	-1.2817	0.4883	0.5493	-1.0217	6.4215	79.3762	39.9500	192	33	-287 
112.676	-0.0854	0.0142	1.0278	-0.1221	0.4272	1.1597	-1.0052	6.4105	79.3817	39.9400	195	31	-285 
112.692	-0.0801	0.0103	1.0220	-1.3428	-0.3662	0.6104	-1.0052	6.3885	79.3982	39.9500	196	30	-286 
112.707	-0.0767	0.0039	1.0161	-1.0986	-0.2441	0.5493	-1.0107	6.3556	79.4147	39.9700	196	30	-285 
112.738	-0.0728	0.0029	1.0151	-0.4883	-0.2441	0.1221	-1.0107	6.3281	79.4312	39.9500	194	30	-283 
112.754	-0.0708	0.0146	1.0088	-0.4272	-0.0610	-0.0610	-0.9998	6.2952	79.4257	39.9500	191	29	-283 
112.770	-0.0674	0.0166	1.0107	-0.6714	0.5493	0.1831	-0.9833	6.2732	79.4257	39.9600	192	28	-283 
112.785	-0.0659	0.0288	1.0073	-1.1597	0.7324	0.1831	-0.9778	6.2567	79.4257	39.9500	195	27	-284 
112.817	-0.0640	0.0190	1.0054	-0.7935	1.5259	1.0986	-0.9613	6.2512	79.4366	39.9700	194	27	-284 
112.863	-0.0688	0.0073	1.0112	-1.4038	1.7700	0.6714	-0.9668	6.2567	79.4641	39.9600	194	27	-287 
112.879	-0.0703	0.0127	1.0132	-2.1973	2.2583	-0.1221	-0.9833	6.2677	79.4696	39.9400	192	29	-283 
112.879	-0.0742	0.0063	1.0176	-3.0518	2.5635	-0.3052	-1.0272	6.2952	79.4641	39.9500	190	31	-283 
112.895	-0.0840	-0.0010	1.0273	-2.3804	2.6245	0.0610	-1.0657	6.3226	79.4531	39.9600	191	32	-284 
112.910	-0.0903	0.0029	1.0400	-1.7700	1.8311	-0.0610	-1.0876	6.3446	79.4421	39.9600	191	32	-283 
112.926	-0.0884	0.0122	1.0386	-0.3052	0.4272	0.0000	-1.0876	6.3446	79.4312	39.9600	192	30	-282 
112.957	-0.0801	0.0205	1.0195	-0.4883	0.0000	0.0000	-1.0712	6.3226	79.4202	39.9700	192	29	-283 
112.973	-0.0718	0.0210	1.0088	-0.9155	0.3662	0.7935	-1.0547	6.3062	79.4037	39.9600	192	31	-284 
112.988	-0.0698	0.0122	1.0137	-0.5493	0.7324	1.1597	-1.0437	6.2897	79.4147	39.9600	194	30	-282 
113.051	-0.0693	0.0083	1.0132	-0.9766	0.9155	0.7324	-1.0382	6.2787	79.4421	39.9500	192	30	-283 
113.113	-0.0713	0.0034	1.0171	-1.9531	1.3428	0.6714	-1.0602	6.2732	79.4531	39.9500	190	32	-283 
113.113	-0.0737	-0.0054	1.0181	-1.1597	1.4038	0.1831	-1.0712	6.2732	79.4531	39.9700	189	34	-283 
113.113	-0.0732	0.0117	1.0146	-0.8545	0.7935	-0.4272	-1.0767	6.2677	79.4257	39.9500	188	34	-282 
113.129	-0.0762	0.0176	1.0215	-0.9155	1.2817	-0.3052	-1.0712	6.2677	79.4037	39.9500	187	32	-282 
113.129	-0.0752	0.0327	1.0161	-1.3428	1.2207	-0.4272	-1.0657	6.2677	79.3597	39.9700	190	34	-285 
113.129	-0.0762	0.0239	1.0166	-0.9155	1.6479	0.7324	-1.0492	6.2677	79.3378	39.9600	191	31	-285 
113.145	-0.0742	0.0205	1.0166	-2.0752	1.4038	0.4272	-1.0602	6.2732	79.3213	39.9700	191	32	-285 
113.176	-0.0693	0.0073	1.0112	-2.0752	1.7700	1.1597	-1.0712	6.2787	79.3268	39.9600	193	30	-285 
113.192	-0.0732	0.0054	1.0171	-2.4414	2.3193	0.6714	-1.1041	6.2952	79.3433	39.9700	192	32	-282 
113.204	-0.0762	-0.0137	1.0190	-0.9766	2.0752	1.2207	-1.1206	6.3171	79.3762	39.9800	191	30	-283 
113.223	-0.0781	-0.0117	1.0269	-1.2817	1.6479	0.1831	-1.1371	6.3281	79.4147	39.9600	193	28	-282 
113.301	-0.0776	0.0059	1.0181	-1.1597	1.7700	-0.4272	-1.1481	6.3336	79.4147	39.9600	193	28	-282 
113.316	-0.0854	0.0122	1.0288	-1.0986	2.0752	-0.7324	-1.1536	6.3501	79.4092	39.9800	193	29	-284 
113.316	-0.0859	0.0273	1.0303	-0.9155	1.0376	-0.6104	-1.1481	6.3611	79.3817	39.9600	194	29	-284 
113.316	-0.0835	0.0259	1.0244	-0.8545	0.7324	0.2441	-1.1316	6.3556	79.3652	39.9500	193	28	-285 
113.332	-0.0801	0.0093	1.0229	-2.1973	0.5493	0.1221	-1.1426	6.3446	79.3652	39.9500	193	30	-285 
113.348	-0.0786	0.0122	1.0190	-1.9531	0.6714	-0.0610	-1.1646	6.3391	79.3652	39.9500	193	29	-286 
113.363	-0.0679	0.0020	1.0083	-0.5493	0.7324	0.3052	-1.1591	6.3171	79.3817	39.9700	193	28	-285 
113.394	-0.0635	0.0049	1.0059	-1.5259	0.8545	-0.6104	-1.1700	6.3062	79.3872	39.9500	192	31	-284 
113.410	-0.0640	0.0190	1.0039	-1.7700	1.7090	-0.3052	-1.1810	6.2952	79.3542	39.9500	193	31	-283 
113.426	-0.0679	0.0181	1.0098	-1.4038	2.3804	0.1221	-1.1865	6.3116	79.3378	39.9500	193	31	-283 
113.488	-0.0796	0.0112	1.0190	-2.3193	2.9297	0.7935	-1.1975	6.3391	79.3378	39.9400	193	29	-284 
113.504	-0.0825	-0.0005	1.0259	-2.0142	2.9297	0.7935	-1.2195	6.3776	79.3652	39.9700	194	29	-284 
113.504	-0.0903	-0.0034	1.0347	-0.6104	2.0142	0.4272	-1.2305	6.4050	79.3872	39.9400	194	30	-283 
113.504	-0.0889	-0.0054	1.0293	-0.1221	1.7090	0.1831	-1.2250	6.4270	79.3982	39.9600	196	32	-284 
113.535	-0.0884	0.0059	1.0313	-0.3662	0.7935	-0.0610	-1.2140	6.4325	79.3927	39.9500	195	32	-282 
113.551	-0.0869	0.0146	1.0288	-0.3662	0.3662	0.0000	-1.1975	6.4215	79.3817	39.9400	194	31	-282 
113.566	-0.0825	0.0220	1.0239	-0.4883	-0.1221	0.3052	-1.1810	6.4050	79.3652	39.9300	193	30	-281 
113.582	-0.0786	0.0146	1.0190	-0.8545	0.0000	0.7324	-1.1700	6.3776	79.3707	39.9500	195	30	-280 
113.660	-0.0732	0.0107	1.0166	-0.8545	-0.5493	0.4883	-1.1646	6.3501	79.3762	39.9500	194	29	-279 
113.676	-0.0649	0.0068	1.0054	-0.4272	-0.3662	0.3662	-1.1536	6.3116	79.3927	39.9400	193	28	-281 
113.676	-0.0586	-0.0078	0.9985	-0.9155	0.1831	-0.1221	-1.1481	6.2787	79.4202	39.9400	194	27	-282 
113.676	-0.0601	0.0010	0.9995	-1.8921	0.6714	-1.4038	-1.1700	6.2567	79.4312	39.9300	193	26	-282 
113.691	-0.0654	0.0093	1.0054	-0.5493	1.8311	-0.6104	-1.1755	6.2512	79.4202	39.9500	193	28	-282 
113.707	-0.0708	0.0176	1.0195	-0.6714	2.6245	-0.1221	-1.1646	6.2677	79.4147	39.9200	193	28	-282 
113.722	-0.0796	0.0215	1.0283	-0.8545	2.5635	0.4272	-1.1591	6.3007	79.4147	39.9300	193	27	-281 
113.754	-0.0801	0.0205	1.0220	-0.4272	2.2583	0.6714	-1.1371	6.3226	79.4257	39.9300	193	27	-283 
113.769	-0.0845	0.0200	1.0293	-1.2817	1.8921	0.7324	-1.1316	6.3446	79.4257	39.9200	196	30	-284 
113.785	-0.0864	-0.0005	1.0337	-0.5493	1.5869	1.2207	-1.1261	6.3611	79.4421	39.9500	197	30	-284 
113.801	-0.0854	0.0020	1.0259	-0.9766	0.6714	0.3662	-1.1261	6.3611	79.4696	39.9300	196	29	-284 
113.832	-0.0791	0.0000	1.0215	-1.2817	0.8545	0.5493	-1.1371	6.3556	79.4861	39.9300	194	30	-284 
113.910	-0.0728	0.0186	1.0166	-0.4272	0.7324	0.5493	-1.1316	6.3391	79.4806	39.9300	193	31	-281 
113.926	-0.0728	0.0215	1.0171	-0.4272	0.7935	0.7324	-1.1096	6.3281	79.4696	39.9300	193	33	-282 
113.926	-0.0771	0.0229	1.0161	-0.9155	0.8545	0.7935	-1.0986	6.3226	79.4531	39.9400	194	32	-284 
113.926	-0.0796	0.0127	1.0190	-1.0986	0.9766	1.2207	-1.0931	6.3171	79.4586	39.9300	197	31	-284 
113.926	-0.0815	-0.0049	1.0298	-0.6714	0.7935	1.2207	-1.0931	6.3171	79.4916	39.9400	194	32	-285 
113.941	-0.0718	-0.0088	1.0195	-0.3052	0.2441	0.7324	-1.0931	6.3007	79.5135	39.9200	193	32	-284 
113.973	-0.0674	-0.0010	1.0127	-0.9155	0.6104	-0.2441	-1.0931	6.2787	79.5190	39.9200	193	33	-283 
113.988	-0.0708	0.0254	1.0073	-0.5493	0.6714	-0.7324	-1.0822	6.2622	79.4806	39.9300	191	34	-284 
114.004	-0.0698	0.0386	1.0122	-0.1221	1.0376	0.3052	-1.0492	6.2512	79.4421	39.9300	190	31	-285 
114.082	-0.0723	0.0469	1.0103	-1.2817	1.2207	0.7324	-1.0217	6.2457	79.4147	39.9200	191	29	-286 
114.098	-0.0757	0.0308	1.0210	-1.4038	1.9531	2.6855	-1.0052	6.2512	79.4257	39.9200	191	29	-287 
114.098	-0.0679	0.0220	1.0107	-2.2583	1.6479	2.5635	-1.0107	6.2622	79.4586	39.9300	192	29	-287 
114.098	-0.0537	0.0132	0.9941	-2.6855	2.3804	1.7700	-1.0327	6.2677	79.4971	39.9400	190	30	-285 
114.113	-0.0547	0.0161	0.9927	-2.6855	3.1738	1.4038	-1.0602	6.2842	79.5190	39.9200	189	30	-286 
114.129	-0.0605	0.0054	0.9961	-3.2349	4.5776	1.5869	-1.0986	6.3336	79.5410	39.9200	188	31	-285 
114.144	-0.0732	-0.0010	1.0146	-3.5400	5.5542	1.4038	-1.1481	6.4050	79.5685	39.9200	190	31	-286 
114.160	-0.0898	-0.0176	1.0322	-2.4414	5.1270	1.4648	-1.1975	6.4929	79.6124	39.9100	191	29	-287 
114.191	-0.0986	-0.0132	1.0376	-2.6855	4.7607	0.7324	-1.2415	6.5753	79.6509	39.9000	190	29	-286 
114.207	-0.1045	-0.0078	1.0474	-1.4648	3.6621	0.3052	-1.2689	6.6467	79.6674	39.9400	192	29	-286 
114.223	-0.1006	0.0117	1.0488	-1.3428	2.3804	-0.0610	-1.2799	6.6907	79.6674	39.9500	191	31	-284 
114.254	-0.0986	0.0322	1.0391	-1.3428	1.0986	0.3662	-1.2744	6.7072	79.6344	39.9300	193	32	-283 
114.332	-0.0947	0.0386	1.0278	-1.6479	0.3662	0.9155	-1.2634	6.7017	79.6069	39.9400	196	31	-284 
114.348	-0.0850	0.0234	1.0215	-1.6479	0.5493	2.5635	-1.2579	6.6907	79.6069	39.9200	195	31	-284 
114.348	-0.0835	0.0059	1.0220	-2.4414	0.6104	2.8076	-1.2689	6.6797	79.6564	39.9300	196	30	-283 
114.348	-0.0776	-0.0298	1.0190	-2.0752	0.9155	2.4414	-1.3019	6.6687	79.7278	39.9200	195	30	-283 
114.348	-0.0776	-0.0415	1.0156	-1.5259	0.3662	1.5869	-1.3403	6.6522	79.8157	39.9500	193	29	-280 
114.363	-0.0737	-0.0391	1.0151	-0.3052	0.7935	0.0610	-1.3623	6.6357	79.8816	39.9200	194	30	-281 
114.379	-0.0801	-0.0171	1.0200	-0.5493	0.7935	-1.0986	-1.3733	6.6248	79.8926	39.9200	194	30	-280 
114.410	-0.0850	0.0034	1.0303	0.4883	0.7324	-1.4648	-1.3678	6.6138	79.8761	39.9200	197	30	-278 
114.426	-0.0874	0.0156	1.0264	0.7324	0.1221	-1.2817	-1.3293	6.5973	79.8486	39.9200	197	29	-279 
114.441	-0.0835	0.0298	1.0166	0.0000	0.0000	-1.0376	-1.2964	6.5753	79.8047	39.9400	196	27	-279 
114.531	-0.0859	0.0249	1.0244	-0.0610	0.3662	-0.4272	-1.2634	6.5588	79.7827	39.9400	195	27	-279 
114.546	-0.0811	0.0073	1.0234	-0.3662	0.0000	0.0000	-1.2415	6.5369	79.7717	39.9200	196	30	-278 
114.546	-0.0776	-0.0029	1.0146	-0.9155	-0.0610	-0.1221	-1.2415	6.5149	79.7717	39.9400	196	31	-281 
114.546	-0.0703	-0.0098	1.0127	-0.4272	-0.1221	-0.4883	-1.2469	6.4819	79.7717	39.9200	196	31	-282 
114.546	-0.0703	-0.0156	1.0161	0.0000	0.0610	-0.7324	-1.2469	6.4545	79.7827	39.9200	195	30	-280 
114.562	-0.0645	0.0049	1.0049	1.5259	0.0000	-0.5493	-1.2195	6.4215	79.7827	39.9200	192	28	-281 
114.593	-0.0664	0.0137	1.0039	2.3193	0.4883	-0.3052	-1.1591	6.3940	79.7772	39.9300	193	27	-281 
114.609	-0.0674	0.0435	0.9985	0.9155	1.4038	-0.8545	-1.0986	6.3776	79.7443	39.9200	194	27	-283 
114.625	-0.0771	0.0356	1.0103	0.9766	2.5635	0.3662	-1.0382	6.3940	79.7168	39.9300	193	26	-286 
114.640	-0.0884	0.0244	1.0303	-0.1221	2.0752	0.1831	-0.9998	6.4215	79.7058	39.9300	191	28	-284 
114.734	-0.0898	0.0210	1.0293	0.1221	1.7090	0.7324	-0.9723	6.4380	79.7003	39.9300	192	28	-284 
114.734	-0.0918	0.0059	1.0352	0.1831	1.0986	0.4272	-0.9448	6.4545	79.7113	39.9500	192	28	-285 
114.734	-0.0884	0.0073	1.0337	0.6104	0.4883	0.3052	-0.9229	6.4545	79.7168	39.9500	194	30	-284 
114.734	-0.0820	0.0156	1.0264	0.5493	-0.5493	0.0000	-0.8899	6.4325	79.7003	39.9400	194	32	-283 
114.750	-0.0747	0.0337	1.0103	0.5493	-0.8545	0.3052	-0.8514	6.3885	79.6729	39.9500	194	32	-282 
114.765	-0.0703	0.0264	1.0078	0.0000	0.1831	0.7935	-0.8130	6.3611	79.6564	39.9300	193	33	-283 
114.781	-0.0659	0.0259	1.0024	-1.1597	0.6104	0.1221	-0.7965	6.3391	79.6399	39.9300	193	30	-281 
114.812	-0.0654	0.0186	1.0029	-1.2817	0.9155	0.5493	-0.7965	6.3226	79.6179	39.9400	192	31	-282 
114.828	-0.0703	0.0142	1.0127	-1.4038	1.6479	0.2441	-0.8020	6.3171	79.6179	39.9200	192	29	-283 
114.890	-0.0674	0.0103	1.0127	-0.8545	1.4648	-0.3052	-0.8130	6.3171	79.6234	39.9300	194	28	-283 
114.906	-0.0669	0.0234	1.0098	-0.9766	1.4038	-0.8545	-0.8075	6.3171	79.6124	39.9500	196	28	-281 
114.906	-0.0669	0.0425	1.0029	-1.4648	2.0142	-0.3052	-0.7965	6.3171	79.5740	39.9100	196	29	-281 
114.906	-0.0723	0.0454	1.0078	-2.5024	3.1738	0.5493	-0.7965	6.3391	79.5355	39.9200	195	31	-281 
114.921	-0.0918	0.0234	1.0356	-3.4790	4.0283	1.4648	-0.8240	6.3940	79.5355	39.9300	197	30	-282 
114.937	-0.0991	0.0059	1.0459	-3.7842	2.9907	1.2207	-0.8734	6.4545	79.5520	39.9300	196	30	-280 
114.968	-0.1021	-0.0112	1.0537	-2.9297	1.4038	1.0376	-0.9283	6.4819	79.5795	39.9300	194	29	-281 
114.984	-0.0962	-0.0146	1.0483	-2.5635	-0.1221	0.2441	-0.9778	6.4819	79.6069	39.9200	193	31	-279 
115.000	-0.0752	0.0112	1.0059	-1.8921	-1.0986	-0.4272	-1.0107	6.4380	79.5959	39.9300	193	33	-279 
115.031	-0.0728	0.0215	0.9971	-1.1597	-0.0610	0.4272	-1.0217	6.3995	79.5795	39.9300	193	31	-280 
115.046	-0.0879	0.0225	1.0356	-1.0986	0.2441	0.4272	-1.0107	6.3885	79.5795	39.9200	194	30	-281 
115.062	-0.0830	0.0298	1.0376	-1.6479	-0.6714	0.6104	-1.0107	6.3666	79.5740	39.9400	194	28	-280 
115.140	-0.0649	0.0005	1.0220	-1.2817	-1.0376	2.1973	-1.0107	6.3171	79.5959	39.9300	192	29	-281 
115.156	-0.0620	-0.0186	1.0112	-2.7466	-1.2817	1.0986	-1.0382	6.2622	79.6509	39.9200	191	29	-283 
115.156	-0.0610	-0.0283	0.9980	-2.6855	-0.7935	0.1831	-1.0986	6.2073	79.7003	39.9200	192	29	-281 
115.156	-0.0601	-0.0391	0.9775	1.2207	0.7935	-0.4883	-1.1151	6.1743	79.7498	39.9300	191	30	-281 
115.171	-0.0693	-0.0103	0.9980	2.0752	2.3804	-1.8921	-1.0767	6.1853	79.7388	39.9400	193	31	-280 
115.187	-0.1030	0.0264	1.0649	1.4648	2.2583	-2.7466	-1.0272	6.2238	79.6619	39.9300	193	33	-279 
115.203	-0.1099	0.0415	1.0713	0.9766	0.0000	-2.3804	-0.9723	6.2292	79.5685	39.9200	192	31	-281 
115.218	-0.1016	0.0425	1.0493	0.9766	-1.8921	-0.1221	-0.9119	6.1908	79.4971	39.9200	193	31	-282 
115.250	-0.0894	0.0371	1.0371	0.5493	-2.8076	0.5493	-0.8624	6.1249	79.4641	39.9200	192	31	-285 
115.312	-0.0659	0.0044	1.0200	2.0142	-3.3569	1.6479	-0.8075	6.0370	79.4861	39.9300	192	30	-285 
115.328	-0.0542	0.0161	1.0039	1.2207	-3.4790	0.6714	-0.7581	5.9326	79.5081	39.9300	192	28	-284 
115.328	-0.0508	0.0181	1.0010	1.4648	-2.0142	1.0376	-0.7086	5.8447	79.5245	39.9200	192	26	-284 
115.328	-0.0571	0.0200	1.0088	0.6104	-1.5259	0.7324	-0.6647	5.7788	79.5465	39.9300	193	26	-285 
115.343	-0.0771	0.0234	1.0352	0.3052	-1.0986	1.7700	-0.6372	5.7349	79.5685	39.9400	193	26	-286 
115.359	-0.0757	0.0195	1.0391	1.0376	-2.0142	2.0752	-0.5988	5.6799	79.6179	39.9200	192	25	-288 
115.390	-0.0625	0.0244	1.0249	1.3428	-2.9297	1.8921	-0.5493	5.6030	79.6619	39.9200	193	26	-287 
115.406	-0.0518	0.0347	1.0073	0.9766	-3.1738	1.8311	-0.4944	5.5151	79.6838	39.9200	192	28	-288 
115.421	-0.0420	0.0171	0.9819	1.2207	-1.7090	2.6245	-0.4395	5.4272	79.7113	39.9400	191	29	-289 
115.437	0.0010	0.0015	0.9702	-0.2441	-2.8687	2.7466	-0.4120	5.3448	79.7662	39.9300	190	26	-286 
115.531	-0.0444	0.0049	1.0210	-1.8921	1.5259	2.2583	-0.3900	5.3448	79.7717	39.9300	190	27	-288 
115.531	-0.0283	0.0293	0.9839	1.7700	1.4648	0.8545	-0.3625	5.3229	79.8102	39.9300	191	26	-288 
115.531	-0.0518	0.0244	0.9922	-0.7935	3.9673	-0.6104	-0.3625	5.3558	79.8267	39.9200	192	26	-288 
115.531	-0.0605	0.0068	1.0166	-0.1221	4.1504	0.3662	-0.3406	5.4218	79.8267	39.9300	191	25	-288 
115.546	-0.0889	0.0166	1.0625	-1.5869	4.3335	-1.0376	-0.3571	5.4987	79.8212	39.9300	191	24	-288 
115.562	-0.0903	0.0078	1.0581	0.3052	2.3804	-1.2207	-0.3625	5.5426	79.8157	39.9200	190	25	-288 
115.578	-0.0820	0.0112	1.0444	0.4883	0.1831	-1.2207	-0.3406	5.5591	79.7992	39.9200	191	25	-287 
115.609	-0.0811	0.0361	1.0459	0.6104	-0.3662	-1.4648	-0.3021	5.5426	79.7443	39.9300	193	28	-289 
115.625	-0.0615	0.0635	1.0063	0.7324	-0.9766	-1.0986	-0.2527	5.4932	79.6783	39.9200	193	27	-288 
115.640	-0.0542	0.0430	1.0059	-0.1831	-0.1831	-0.3662	-0.2252	5.4602	79.6509	39.9300	192	25	-285 
115.718	-0.0532	0.0132	1.0137	-0.2441	0.5493	0.3052	-0.1978	5.4327	79.6509	39.9200	193	24	-285 
115.734	-0.0625	0.0210	1.0288	-1.6479	0.1831	-1.2207	-0.2087	5.4163	79.6399	39.9500	193	25	-285 
115.734	-0.0527	0.0171	1.0220	-0.7935	-0.6104	-2.1362	-0.2252	5.3833	79.6179	39.9300	189	26	-287 
115.734	-0.0464	0.0337	1.0063	-1.7700	-0.6714	-2.8687	-0.2362	5.3339	79.5520	39.9200	188	27	-285 
115.750	-0.0449	0.0488	1.0000	-1.5259	0.4883	-1.7700	-0.2417	5.3064	79.4696	39.9200	187	28	-286 
115.756	-0.0464	0.0459	0.9971	-1.5869	1.4038	-1.0376	-0.2362	5.2899	79.4037	39.9400	185	29	-286 
115.776	-0.0547	0.0269	1.0244	-2.1973	2.3193	-0.2441	-0.2582	5.3064	79.3707	39.9200	187	29	-286 
115.794	-0.0557	0.0122	1.0259	-1.8921	1.9531	-0.1221	-0.2856	5.3229	79.3597	39.9300	188	30	-286 
115.825	-0.0518	0.0132	1.0151	-1.0986	1.7090	-0.3052	-0.3021	5.3284	79.3542	39.9300	188	29	-286 
115.841	-0.0552	0.0249	1.0137	-1.0376	1.8921	-0.1831	-0.3021	5.3339	79.3378	39.9200	189	28	-287 
115.857	-0.0645	0.0332	1.0205	-1.4648	1.8921	0.3662	-0.3076	5.3503	79.3213	39.9300	192	29	-287 
115.888	-0.0659	0.0352	1.0205	-1.2207	1.8921	1.3428	-0.3021	5.3668	79.3158	39.9300	190	29	-287 
115.919	-0.0742	0.0117	1.0356	0.0000	2.2583	1.7090	-0.2856	5.3998	79.3488	39.9300	187	27	-285 
115.935	-0.0732	0.0171	1.0308	-1.0376	1.4648	0.1831	-0.2856	5.4163	79.3707	39.9200	187	26	-284 
115.950	-0.0679	0.0220	1.0244	-0.5493	0.9766	-0.1831	-0.2856	5.4218	79.3707	39.9400	186	24	-285 
115.966	-0.0635	0.0151	1.0210	-0.4883	0.5493	-0.4883	-0.2802	5.4108	79.3652	39.9400	187	26	-285 
115.982	-0.0474	0.0273	0.9985	-1.4038	0.7935	-1.9531	-0.2856	5.3943	79.3378	39.9100	188	26	-285 
115.997	-0.0532	0.0283	1.0220	-1.9531	2.1362	-1.5869	-0.3021	5.3943	79.2993	39.9200	188	26	-286 
116.028	-0.0869	-0.0015	1.0640	-0.4272	1.5869	-0.3052	-0.3076	5.4218	79.2938	39.9200	189	27	-287 
116.044	-0.0942	-0.0205	1.0688	-1.3428	-0.3052	-1.3428	-0.3351	5.4272	79.3103	39.9300	188	27	-288 
116.060	-0.0845	-0.0063	1.0420	0.3662	-2.9907	-2.1362	-0.3461	5.3723	79.2773	39.9300	188	29	-288 
116.075	-0.0757	-0.0034	1.0391	1.9531	-3.4180	-2.4414	-0.3241	5.2954	79.2444	39.9300	186	29	-288 
116.153	-0.0547	0.0317	1.0166	3.6621	-5.0049	-3.9673	-0.2582	5.1855	79.1730	39.9000	188	29	-288 
116.169	-0.0386	0.0654	0.9927	4.3335	-4.6387	-3.2959	-0.1428	5.0537	79.0686	39.9200	188	28	-288 
116.169	-0.0356	0.0962	0.9937	2.9907	-2.7466	-1.4038	-0.0220	4.9493	78.9587	39.9200	186	28	-289 
116.169	-0.0317	0.0942	0.9951	2.3193	-1.4648	0.3052	0.0879	4.8724	78.8763	39.9200	187	26	-291 
116.185	-0.0264	0.0806	0.9976	-0.2441	-0.9155	1.5869	0.1648	4.8120	78.8544	39.9300	188	25	-291 
116.200	-0.0190	0.0864	0.9844	-1.8921	-0.2441	1.8921	0.1923	4.7571	78.8434	39.9300	187	24	-291 
116.216	-0.0283	0.0352	0.9995	-1.7090	2.1362	3.7231	0.2032	4.7461	78.8983	39.9100	188	24	-289 
116.247	-0.0322	0.0234	0.9971	-2.1362	2.0752	3.1128	0.1813	4.7516	78.9752	39.9100	188	25	-291 
116.263	-0.0381	0.0093	1.0039	-1.3428	3.1738	2.3193	0.1648	4.7791	79.0466	39.9200	189	28	-293 
116.341	-0.0352	0.0122	0.9976	-1.5869	3.1128	1.2817	0.1428	4.8065	79.0906	39.9400	188	28	-292 
116.357	-0.0396	0.0313	1.0000	-2.0752	4.3945	1.2817	0.1208	4.8505	79.1125	39.9300	187	27	-292 
116.357	-0.0425	0.0308	1.0112	-1.6479	5.0659	1.2817	0.1099	4.9164	79.1290	39.9200	186	26	-291 
116.357	-0.0537	0.0313	1.0176	-1.7700	5.2490	0.7935	0.0989	4.9988	79.1400	39.9200	187	27	-290 
116.357	-0.0586	0.0327	1.0225	-1.8921	5.3101	0.4883	0.0824	5.0812	79.1345	39.9300	186	28	-288 
116.388	-0.0688	0.0269	1.0332	-2.6245	5.0049	-0.1831	0.0549	5.1636	79.1290	39.9300	187	26	-286 
116.403	-0.0728	0.0273	1.0400	-3.1738	4.3335	-0.6714	0.0110	5.2405	79.1125	39.9200	188	26	-286 
116.419	-0.0718	0.0376	1.0332	-2.8076	3.2959	-0.8545	-0.0165	5.2954	79.0796	39.9300	189	27	-285 
116.435	-0.0708	0.0361	1.0254	-2.4414	3.2349	0.1221	-0.0439	5.3448	79.0576	39.9300	187	26	-286 
116.466	-0.0688	0.0273	1.0278	-1.9531	2.9297	0.9155	-0.0659	5.3888	79.0686	39.9400	188	26	-287 
116.528	-0.0684	0.0229	1.0273	-1.7700	2.5635	0.9766	-0.0824	5.4218	79.0851	39.9100	189	26	-288 
116.544	-0.0684	0.0146	1.0337	-1.5259	1.8311	0.6714	-0.0989	5.4492	79.1016	39.9100	189	27	-289 
116.544	-0.0654	0.0142	1.0298	-1.5869	1.2817	0.1221	-0.1208	5.4602	79.1125	39.9300	189	27	-287 
116.544	-0.0649	0.0298	1.0244	-2.0752	1.1597	-0.4272	-0.1428	5.4602	79.1071	39.9200	188	27	-288 
116.560	-0.0630	0.0313	1.0205	-1.4648	1.2817	0.1221	-0.1538	5.4602	79.0961	39.9300	187	26	-290 
116.575	-0.0576	0.0229	1.0137	-1.3428	1.2817	0.7324	-0.1593	5.4602	79.1125	39.9400	190	24	-290 
116.607	-0.0566	0.0215	1.0146	-0.9766	1.4648	0.6714	-0.1648	5.4602	79.1400	39.9200	189	25	-289 
116.622	-0.0542	0.0225	1.0112	-0.9155	1.2817	0.0000	-0.1593	5.4602	79.1510	39.9300	189	25	-287 
116.638	-0.0581	0.0313	1.0137	-1.4648	1.4648	-0.6714	-0.1648	5.4602	79.1400	39.9200	188	25	-287 
116.653	-0.0605	0.0371	1.0195	-0.9155	1.4038	-0.3052	-0.1648	5.4657	79.1180	39.9300	189	27	-287 
116.747	-0.0586	0.0371	1.0161	-0.8545	1.5259	0.1831	-0.1538	5.4712	79.1071	39.9300	190	26	-285 
116.747	-0.0605	0.0386	1.0156	-1.7700	2.0752	0.2441	-0.1538	5.4822	79.1016	39.9500	190	26	-284 
116.747	-0.0630	0.0366	1.0229	-1.8921	2.0142	0.3662	-0.1648	5.4987	79.0961	39.9400	190	25	-284 
116.747	-0.0557	0.0469	1.0098	-1.7700	1.5259	0.4883	-0.1703	5.5042	79.0961	39.9200	191	27	-287 
116.763	-0.0547	0.0449	1.0107	-2.1362	2.0142	1.4648	-0.1758	5.5096	79.0906	39.9200	191	28	-287 
116.778	-0.0586	0.0190	1.0200	-3.1128	2.7466	1.4648	-0.2032	5.5316	79.1125	39.9200	190	27	-288 
116.794	-0.0601	0.0142	1.0171	-3.7231	2.5024	1.0376	-0.2582	5.5591	79.1455	39.9300	189	27	-288 
116.825	-0.0674	0.0029	1.0195	-2.7466	3.2959	1.5259	-0.3076	5.5920	79.1840	39.9200	187	27	-287 
116.841	-0.0767	-0.0122	1.0400	-1.8311	3.2349	1.1597	-0.3516	5.6415	79.2389	39.9400	189	26	-286 
116.856	-0.0781	-0.0024	1.0386	-0.9766	1.6479	-0.1221	-0.3790	5.6689	79.2828	39.9300	192	25	-287 
116.872	-0.0771	0.0068	1.0283	0.5493	1.2207	-0.2441	-0.3735	5.6799	79.2938	39.9200	193	28	-285 
116.903	-0.0674	0.0293	1.0171	1.7700	0.6104	-0.0610	-0.3241	5.6799	79.2938	39.9300	194	27	-284 
116.981	-0.0645	0.0449	1.0171	1.2817	0.7935	0.0610	-0.2692	5.6689	79.2719	39.9300	194	28	-284 
116.997	-0.0625	0.0557	1.0146	-0.7324	1.3428	0.1831	-0.2252	5.6635	79.2444	39.9300	192	27	-285 
116.997	-0.0596	0.0439	1.0059	-1.7700	1.8311	0.1221	-0.2197	5.6689	79.2169	39.9300	193	28	-283 
116.997	-0.0654	0.0264	1.0210	-2.8076	2.0142	0.3662	-0.2417	5.6799	79.2004	39.9400	192	28	-283 
116.997	-0.0679	0.0078	1.0273	-2.0752	1.5869	0.7324	-0.2747	5.6909	79.2169	39.9300	190	27	-284 
117.013	-0.0605	0.0142	1.0190	-0.8545	0.3662	-0.2441	-0.2911	5.6854	79.2334	39.9200	190	27	-284 
117.044	-0.0566	0.0137	1.0093	-0.3052	0.7324	0.0000	-0.2856	5.6689	79.2389	39.9300	192	27	-286 
117.060	-0.0591	0.0176	1.0088	-1.3428	1.5869	-0.5493	-0.2911	5.6635	79.2389	39.9200	191	28	-284 
117.075	-0.0674	0.0200	1.0249	-1.2207	2.1973	-0.4883	-0.3021	5.6744	79.2224	39.9200	191	28	-284 
117.153	-0.0762	0.0283	1.0425	-0.6104	1.0376	-0.5493	-0.3021	5.6909	79.2004	39.9300	191	28	-284 
117.169	-0.0723	0.0405	1.0332	0.5493	0.2441	-0.1831	-0.2747	5.6799	79.1730	39.9200	192	28	-284 
117.169	-0.0566	0.0483	1.0024	0.5493	-0.0610	1.0986	-0.2252	5.6525	79.1510	39.9200	192	27	-284 
117.169	-0.0493	0.0405	0.9961	-0.0610	0.9155	1.5869	-0.1813	5.6305	79.1565	39.9200	192	29	-284 
117.185	-0.0459	0.0327	0.9971	-0.4883	2.1973	1.0376	-0.1648	5.6250	79.1620	39.9200	190	31	-284 
117.200	-0.0483	0.0205	0.9995	-1.4038	2.9907	0.6714	-0.1593	5.6415	79.1675	39.9300	190	29	-281 
117.207	-0.0620	0.0220	1.0132	-1.8311	2.9907	-0.1221	-0.1813	5.6744	79.1675	39.9200	193	26	-280 
117.239	-0.0674	0.0200	1.0210	-1.5259	3.2349	0.0000	-0.1978	5.7129	79.1785	39.9200	193	24	-281 
117.254	-0.0752	0.0298	1.0303	-1.5259	3.1128	0.0000	-0.2087	5.7568	79.1895	39.9400	191	23	-281 
117.317	-0.0728	0.0308	1.0269	-1.8921	3.0518	0.0000	-0.2197	5.7953	79.1895	39.9200	189	24	-283 
117.332	-0.0786	0.0396	1.0293	-2.1973	2.6245	0.2441	-0.2307	5.8337	79.1785	39.9100	192	25	-286 
117.332	-0.0815	0.0391	1.0298	-2.0142	2.2583	0.6714	-0.2472	5.8667	79.1730	39.9200	192	26	-287 
117.348	-0.0845	0.0249	1.0381	-2.0752	1.4648	1.0376	-0.2582	5.8887	79.1840	39.9300	192	28	-287 
117.364	-0.0854	0.0063	1.0396	-2.0752	0.9155	1.1597	-0.2856	5.8997	79.2004	39.9300	190	28	-285 
117.379	-0.0737	0.0098	1.0317	-1.2817	-0.3662	0.8545	-0.3076	5.8832	79.2224	39.9300	188	28	-287 
117.395	-0.0645	0.0249	1.0176	-0.4883	-0.8545	0.4272	-0.3076	5.8447	79.2389	39.9300	188	27	-286 
117.411	-0.0557	0.0420	1.0024	-1.0376	-0.4883	0.6104	-0.2966	5.8008	79.2279	39.9200	189	28	-286 
117.442	-0.0498	0.0430	0.9966	-1.2207	0.2441	1.0376	-0.2802	5.7623	79.2224	39.9400	189	28	-287 
117.457	-0.0566	0.0308	1.0078	-1.4648	1.7700	1.7700	-0.2802	5.7513	79.2114	39.9300	189	31	-289 
117.473	-0.0615	0.0181	1.0117	-1.4648	1.9531	1.7700	-0.2802	5.7623	79.2279	39.9300	192	32	-288 
117.504	-0.0659	-0.0015	1.0229	-0.9766	2.2583	1.4038	-0.2966	5.7788	79.2554	39.9300	191	30	-287 
117.562	-0.0674	0.0073	1.0249	-1.3428	1.4038	0.2441	-0.3131	5.7898	79.2773	39.9300	189	29	-286 
117.578	-0.0708	0.0254	1.0249	-0.3662	1.4648	0.3052	-0.3131	5.7953	79.2773	39.9300	192	28	-285 
117.578	-0.0728	0.0273	1.0264	0.1221	1.3428	0.5493	-0.2911	5.8008	79.2719	39.9300	192	29	-286 
117.578	-0.0732	0.0332	1.0220	-1.0986	1.0986	0.3052	-0.2802	5.8008	79.2664	39.9200	192	29	-287 
117.593	-0.0684	0.0278	1.0205	-0.9766	0.8545	0.8545	-0.2747	5.8008	79.2609	39.9300	192	28	-286 
117.625	-0.0659	0.0264	1.0215	-0.9766	0.9766	0.8545	-0.2692	5.7898	79.2609	39.9100	190	29	-287 
117.640	-0.0654	0.0288	1.0186	-0.8545	0.6714	0.3662	-0.2692	5.7843	79.2609	39.9200	189	28	-286 
117.656	-0.0610	0.0342	1.0093	-0.6714	0.7324	0.4272	-0.2582	5.7678	79.2444	39.9200	190	29	-286 
117.672	-0.0591	0.0293	1.0078	-1.2207	1.5259	0.6104	-0.2472	5.7623	79.2444	39.9300	190	27	-288 
117.765	-0.0640	0.0269	1.0171	-1.6479	2.0752	0.6104	-0.2582	5.7733	79.2554	39.9300	193	24	-289 
117.765	-0.0640	0.0103	1.0205	-0.7935	2.1362	0.9155	-0.2637	5.7898	79.2883	39.9400	192	25	-288 
117.765	-0.0703	-0.0005	1.0239	-0.2441	2.1973	0.9155	-0.2637	5.8118	79.3268	39.9300	193	27	-288 
117.765	-0.0742	0.0098	1.0342	-0.4883	1.2817	-0.6714	-0.2637	5.8228	79.3433	39.9500	194	27	-287 
117.781	-0.0732	0.0361	1.0259	-0.7935	0.7935	-1.4648	-0.2582	5.8173	79.3048	39.9300	192	27	-289 
117.797	-0.0698	0.0508	0.9976	-1.2207	0.6104	-1.0986	-0.2472	5.8118	79.2554	39.9200	192	24	-287 
117.812	-0.0391	0.0386	0.9707	-2.2583	-1.0376	-0.2441	-0.2417	5.7843	79.2169	39.9300	191	25	-289 
117.843	-0.0557	0.0127	0.9800	-2.3804	0.7324	0.6714	-0.2417	5.7898	79.1840	39.9500	190	24	-287 
117.859	-0.0620	0.0259	0.9956	-1.8921	0.3662	1.0376	-0.2472	5.7953	79.1675	39.9300	190	28	-287 
117.875	-0.0659	-0.0044	1.0029	-1.4038	2.4414	0.9155	-0.2802	5.8063	79.1949	39.9200	190	27	-287 
117.890	-0.0767	-0.0225	1.0562	-2.1973	1.4038	1.5869	-0.3131	5.8447	79.2389	39.9300	191	26	-288 
117.922	-0.0933	0.0020	1.0508	-0.3052	2.9297	-0.0610	-0.3186	5.8447	79.2828	39.9300	190	27	-289 
117.968	-0.0483	-0.0210	1.0093	-0.5493	-1.4648	-1.0986	-0.3571	5.8118	79.3213	39.9300	189	25	-286 
117.984	-0.0713	0.0210	1.0298	-0.9155	1.0376	-0.8545	-0.3131	5.8063	79.2664	39.9200	191	27	-286 
117.984	-0.0620	0.0806	1.0020	1.6479	0.0000	-0.4883	-0.2527	5.7733	79.2114	39.9300	193	26	-283 
118.000	-0.0654	0.0571	1.0190	-1.4648	-0.0610	0.3662	-0.2307	5.7733	79.1895	39.9200	193	26	-282 
118.015	-0.0635	0.0508	1.0078	-0.4883	1.6479	2.0142	-0.1923	5.7623	79.1895	39.9300	189	24	-284 
118.031	-0.0669	0.0220	1.0244	-1.5869	1.4038	1.9531	-0.2087	5.7733	79.2279	39.9300	187	24	-285 
118.062	-0.0679	-0.0122	1.0264	-1.4038	1.4648	1.7090	-0.2252	5.7788	79.3048	39.9200	188	24	-286 
118.078	-0.0571	0.0005	1.0098	-0.4272	0.9155	-0.2441	-0.2472	5.7623	79.3433	39.9100	190	24	-287 
118.125	-0.0596	0.0166	1.0107	-1.0986	1.0376	-1.5869	-0.2527	5.7513	79.3378	39.9200	190	25	-288 
118.140	-0.0669	0.0449	1.0103	-1.2207	2.0752	-1.5259	-0.2527	5.7513	79.2938	39.9300	191	24	-289 
118.140	-0.0679	0.0459	1.0107	-1.0376	1.7090	-0.8545	-0.2472	5.7623	79.2609	39.9100	192	24	-289 
118.156	-0.0791	0.0352	1.0400	-0.9766	2.3804	0.2441	-0.2252	5.7843	79.2499	39.9200	192	25	-288 
118.171	-0.0732	0.0327	1.0293	-1.4038	1.2207	0.9155	-0.2252	5.7953	79.2554	39.9300	190	24	-291 
118.190	-0.0771	0.0161	1.0332	-1.4038	0.7935	1.2817	-0.2362	5.8008	79.2883	39.9200	190	25	-289 
118.202	-0.0786	-0.0010	1.0435	-0.4272	0.3662	1.5869	-0.2417	5.7953	79.3378	39.9300	190	26	-287 
118.234	-0.0688	0.0024	1.0303	0.7324	-1.1597	0.5493	-0.2307	5.7568	79.3872	39.9200	191	23	-288 
118.249	-0.0601	0.0190	1.0103	0.7324	-1.4038	-0.1831	-0.2032	5.7074	79.4202	39.9100	191	22	-288 
118.281	-0.0479	0.0483	0.9922	0.2441	-0.5493	-0.4272	-0.1703	5.6525	79.4037	39.9200	189	24	-289 
118.296	-0.0420	0.0552	0.9819	-0.1221	0.4272	0.0610	-0.1318	5.6140	79.3762	39.9200	187	25	-290 
118.327	-0.0474	0.0518	0.9893	-1.8311	2.3804	0.1221	-0.1208	5.6140	79.3488	39.9200	189	26	-290 
118.343	-0.0562	0.0371	1.0029	-2.5024	3.3569	0.3052	-0.1318	5.6415	79.3378	39.9100	191	24	-290 
118.359	-0.0752	0.0171	1.0391	-2.4414	3.2349	0.4883	-0.1703	5.6964	79.3433	39.9100	192	25	-290 
118.374	-0.0845	0.0093	1.0435	-0.8545	2.8076	0.0610	-0.1868	5.7349	79.3652	39.9200	192	25	-289 
118.390	-0.0806	0.0146	1.0454	-0.4272	1.1597	-0.3052	-0.1923	5.7568	79.3817	39.9200	192	23	-289 
118.421	-0.0786	0.0181	1.0400	-0.1831	0.6104	0.1221	-0.1868	5.7568	79.3927	39.9300	192	25	-287 
118.437	-0.0679	0.0391	1.0225	-0.1831	-0.4272	0.0000	-0.1703	5.7294	79.3872	39.9300	193	26	-287 
118.452	-0.0640	0.0356	1.0205	0.1831	-0.4883	0.8545	-0.1428	5.6964	79.3872	39.9300	193	25	-287 
118.468	-0.0552	0.0396	1.0088	-0.4272	-0.2441	1.0986	-0.1154	5.6580	79.3927	39.9100	193	25	-284 
118.499	-0.0527	0.0352	1.0063	-0.4883	0.3052	1.4038	-0.0934	5.6305	79.4092	39.9200	195	26	-284 
118.531	-0.0537	0.0249	1.0039	-1.0376	1.2207	0.9766	-0.0879	5.6195	79.4312	39.9400	193	26	-285 
118.546	-0.0571	0.0220	1.0127	-1.1597	1.5259	0.0610	-0.0934	5.6140	79.4476	39.9200	193	25	-287 
118.562	-0.0513	0.0361	0.9995	-2.0142	1.4648	-1.1597	-0.1044	5.6140	79.4257	39.9300	191	27	-285 
118.577	-0.0542	0.0425	1.0000	-1.8311	2.6855	-0.7935	-0.1154	5.6250	79.3762	39.9300	189	29	-285 
118.593	-0.0708	0.0278	1.0269	-2.0142	3.6621	0.1221	-0.1263	5.6689	79.3542	39.9300	190	27	-285 
118.609	-0.0796	0.0176	1.0400	-2.3193	3.2349	-0.1831	-0.1538	5.7184	79.3542	39.9400	189	25	-286 
118.640	-0.0864	0.0210	1.0459	-1.3428	1.9531	0.0610	-0.1758	5.7513	79.3542	39.9200	192	26	-286 
118.656	-0.0840	0.0132	1.0459	-0.7324	0.7935	0.4883	-0.1813	5.7678	79.3652	39.9200	192	26	-285 
118.671	-0.0732	0.0249	1.0288	0.3052	-1.0376	0.9155	-0.1648	5.7404	79.3707	39.9200	193	28	-285 
118.702	-0.0591	0.0259	1.0127	0.3052	-1.3428	1.1597	-0.1373	5.6909	79.3872	39.9300	192	27	-286 
118.765	-0.0469	0.0459	0.9912	-0.4883	-0.6714	0.6714	-0.1099	5.6360	79.3817	39.9400	191	26	-288 
118.781	-0.0444	0.0415	0.9922	-0.3662	0.8545	1.0986	-0.0879	5.6030	79.3872	39.9100	192	24	-289 
118.781	-0.0493	0.0303	0.9980	-1.4648	2.0752	1.1597	-0.0824	5.6030	79.4037	39.9200	192	26	-288 
118.781	-0.0586	0.0176	1.0112	-1.6479	2.5635	0.9155	-0.0934	5.6250	79.4257	39.9100	191	26	-286 
118.796	-0.0679	0.0176	1.0244	-1.4038	2.3193	0.1221	-0.1099	5.6470	79.4366	39.9200	191	24	-285 
118.812	-0.0742	0.0176	1.0269	-0.9155	1.9531	0.0000	-0.1208	5.6689	79.4476	39.9200	193	26	-284 
118.827	-0.0747	0.0195	1.0317	-1.2207	1.5869	-0.7935	-0.1263	5.6909	79.4476	39.9200	193	25	-284 
118.859	-0.0757	0.0376	1.0361	-1.1597	1.0376	-1.0986	-0.1318	5.6964	79.4257	39.9200	194	24	-283 
118.874	-0.0708	0.0430	1.0254	-0.4272	0.9155	0.0610	-0.1208	5.6909	79.4037	39.9200	193	25	-285 
118.890	-0.0728	0.0371	1.0337	-0.3052	0.6714	0.6714	-0.0989	5.6854	79.4037	39.8900	194	24	-286 
118.921	-0.0679	0.0156	1.0205	-0.3052	-0.3662	1.1597	-0.0879	5.6635	79.4312	39.9200	193	24	-285 
118.937	-0.0620	0.0171	1.0161	-0.7935	-0.3052	0.2441	-0.0879	5.6360	79.4641	39.9200	192	25	-284 
118.999	-0.0493	0.0303	1.0034	-0.9155	-0.2441	-0.6104	-0.0934	5.5975	79.4586	39.9200	190	25	-286 
119.015	-0.0483	0.0361	0.9946	-0.3052	0.6104	-0.3662	-0.0824	5.5701	79.4421	39.9100	190	26	-286 
119.015	-0.0571	0.0439	1.0093	-1.1597	1.6479	-0.6714	-0.0659	5.5646	79.4092	39.9200	189	27	-287 
119.015	-0.0576	0.0435	1.0112	-2.1973	1.7700	-0.6714	-0.0714	5.5701	79.3652	39.9100	190	28	-288 
119.031	-0.0693	0.0259	1.0283	-1.8921	2.3804	0.2441	-0.0879	5.5920	79.3433	39.9200	190	29	-285 
119.046	-0.0718	0.0205	1.0313	-1.1597	1.7700	0.4272	-0.1044	5.6085	79.3378	39.9400	191	28	-282 
119.077	-0.0767	0.0132	1.0420	-1.4038	0.9155	-0.1221	-0.1154	5.6195	79.3488	39.9000	189	25	-283 
119.093	-0.0713	0.0249	1.0308	-0.8545	-0.0610	-0.3052	-0.1208	5.6085	79.3542	39.9000	191	22	-284 
119.109	-0.0605	0.0254	1.0190	0.1221	0.1221	0.5493	-0.1044	5.5811	79.3762	39.9000	193	21	-283 
119.156	-0.0571	0.0347	1.0107	-0.8545	-0.0610	0.1221	-0.0934	5.5536	79.3872	39.9100	194	23	-284 
119.156	-0.0537	0.0317	1.0078	-0.1221	0.9155	1.0376	-0.0714	5.5316	79.4037	39.9300	190	22	-283 
119.171	-0.0576	0.0322	1.0132	-1.4648	1.2817	0.2441	-0.0714	5.5316	79.4202	39.9100	189	22	-283 
119.187	-0.0586	0.0283	1.0146	-1.1597	1.8311	0.4883	-0.0769	5.5316	79.4312	39.9200	190	21	-284 
119.218	-0.0620	0.0249	1.0215	-1.2817	1.4648	0.1221	-0.0769	5.5371	79.4531	39.9300	190	20	-286 
119.234	-0.0576	0.0327	1.0078	-1.5869	1.2207	-0.6104	-0.0879	5.5316	79.4696	39.9200	191	21	-285 
119.249	-0.0566	0.0400	1.0054	-2.5635	1.8311	-0.9766	-0.1099	5.5371	79.4531	39.9200	191	21	-285 
119.281	-0.0591	0.0381	1.0088	-3.5400	3.0518	-1.0376	-0.1428	5.5591	79.4312	39.9200	191	22	-284 
119.296	-0.0664	0.0347	1.0215	-3.5400	3.5400	-0.7324	-0.1923	5.6030	79.4092	39.9300	193	25	-285 
119.312	-0.0742	0.0200	1.0366	-2.4414	2.8076	0.0610	-0.2307	5.6470	79.4037	39.9200	192	27	-285 
119.359	-0.0796	0.0122	1.0435	-1.4038	1.8311	0.3052	-0.2527	5.6744	79.4092	39.9000	193	28	-285 
119.374	-0.0776	0.0142	1.0386	-0.7935	0.2441	0.0610	-0.2637	5.6744	79.4147	39.9200	191	28	-285 
119.374	-0.0718	0.0176	1.0308	-0.0610	-0.1221	0.6714	-0.2582	5.6580	79.4257	39.9200	192	28	-285 
119.390	-0.0615	0.0151	1.0200	0.3052	-0.6714	1.2207	-0.2362	5.6250	79.4476	39.9000	190	28	-284 
119.406	-0.0547	0.0205	1.0063	0.1831	-0.5493	1.1597	-0.2142	5.5865	79.4641	39.9200	189	28	-284 
119.428	-0.0498	0.0337	1.0005	-0.3662	0.2441	0.4272	-0.1923	5.5481	79.4696	39.9200	186	27	-284 
119.447	-0.0532	0.0405	1.0068	-0.9766	0.9155	0.0000	-0.1813	5.5316	79.4531	39.9300	186	25	-285 
119.465	-0.0605	0.0405	1.0137	-1.2817	1.5259	0.0610	-0.1758	5.5316	79.4366	39.9200	189	27	-285 
119.497	-0.0581	0.0400	1.0088	-1.2207	1.5259	0.1831	-0.1703	5.5316	79.4147	39.9300	190	27	-287 
119.515	-0.0596	0.0332	1.0107	-1.8921	2.2583	0.2441	-0.1758	5.5426	79.3982	39.9200	190	28	-287 
119.531	-0.0659	0.0215	1.0244	-2.4414	2.6245	0.0610	-0.1978	5.5701	79.3927	39.9200	191	27	-287 
119.609	-0.0723	0.0088	1.0337	-2.0142	1.8921	0.2441	-0.2307	5.5920	79.3982	39.9100	191	27	-287 
119.625	-0.0752	0.0112	1.0356	-1.2207	1.4038	0.1221	-0.2527	5.6085	79.4092	39.9300	190	28	-286 
119.625	-0.0698	0.0112	1.0322	-0.5493	0.4883	-0.0610	-0.2582	5.6085	79.4202	39.9200	191	27	-286 
119.625	-0.0620	0.0303	1.0200	-0.6714	-0.1831	-0.3052	-0.2527	5.5865	79.4147	39.9200	190	27	-288 
119.640	-0.0552	0.0415	1.0063	-0.2441	0.3052	0.1831	-0.2307	5.5591	79.3982	39.9200	192	28	-286 
119.656	-0.0527	0.0449	1.0088	-0.9766	0.7935	0.4883	-0.2087	5.5371	79.3707	39.9200	192	29	-286 
119.672	-0.0571	0.0244	1.0122	-1.0986	1.8921	1.2207	-0.2032	5.5371	79.3707	39.9200	191	28	-286 
119.687	-0.0625	0.0186	1.0176	-1.5869	1.8311	0.6104	-0.2142	5.5481	79.3817	39.9300	191	29	-288 
119.718	-0.0640	0.0093	1.0200	-1.5869	1.9531	-0.2441	-0.2307	5.5646	79.3817	39.9200	191	30	-288 
119.781	-0.0640	0.0171	1.0215	-2.1362	1.6479	-1.7090	-0.2582	5.5756	79.3597	39.9200	190	31	-288 
119.797	-0.0640	0.0479	1.0186	-1.8311	1.5259	-1.6479	-0.2802	5.5811	79.2773	39.9300	188	31	-288 
119.797	-0.0645	0.0474	1.0195	-2.6245	1.8921	-1.0376	-0.2856	5.5920	79.2059	39.9400	188	30	-289 
119.797	-0.0649	0.0361	1.0190	-3.2959	1.7090	0.0610	-0.3296	5.6030	79.1675	39.9300	190	28	-287 
119.812	-0.0669	0.0156	1.0249	-1.8921	1.5869	1.0986	-0.3571	5.6140	79.1730	39.9100	190	27	-286 
119.828	-0.0698	0.0020	1.0371	-0.9155	1.3428	1.4648	-0.3680	5.6195	79.2059	39.9100	190	28	-286 
119.859	-0.0693	-0.0117	1.0366	0.4272	0.7324	1.8921	-0.3680	5.6195	79.2554	39.9200	188	30	-288 
119.875	-0.0674	-0.0059	1.0342	0.3052	-0.4272	0.5493	-0.3571	5.6030	79.3213	39.9300	190	27	-287 
119.890	-0.0562	0.0190	1.0132	0.6714	-0.9155	0.0000	-0.3406	5.5646	79.3378	39.9400	191	27	-287 
119.906	-0.0449	0.0415	0.9937	-0.3052	-0.1221	-0.7935	-0.3076	5.5206	79.3158	39.9200	192	27	-286 
119.937	-0.0444	0.0684	0.9854	-1.0986	0.7935	-0.6714	-0.2802	5.4932	79.2609	39.9400	192	27	-286 
119.953	-0.0562	0.0518	1.0049	-0.9766	2.9907	0.4883	-0.2527	5.5042	79.2224	39.9300	191	29	-288 
120.031	-0.0625	0.0483	1.0156	-2.1973	3.1128	0.1831	-0.2527	5.5371	79.1949	39.9300	192	29	-291 
120.047	-0.0713	0.0112	1.0298	-2.1973	3.1128	0.5493	-0.2747	5.5811	79.1895	39.9200	189	29	-289 
120.047	-0.0767	0.0005	1.0371	-2.1362	2.5635	0.5493	-0.3131	5.6195	79.2059	39.9200	188	30	-289 
120.047	-0.0801	-0.0088	1.0488	-1.4648	2.0752	0.3052	-0.3461	5.6470	79.2334	39.9300	189	29	-288 
120.047	-0.0762	0.0176	1.0400	0.0000	-0.0610	-0.3052	-0.3461	5.6415	79.2334	39.9100	190	28	-287 
120.078	-0.0698	0.0317	1.0283	0.6714	-0.6714	-0.1831	-0.3131	5.6085	79.2114	39.9200	191	30	-288 
120.093	-0.0586	0.0361	1.0083	0.2441	-0.3662	0.6714	-0.2802	5.5756	79.1949	39.9300	191	30	-287 
120.109	-0.0557	0.0293	1.0083	-0.4272	0.4272	0.9155	-0.2582	5.5481	79.1840	39.9200	189	31	-288 
120.125	-0.0532	0.0269	1.0049	-1.6479	0.9155	0.1831	-0.2637	5.5316	79.1785	39.9300	190	32	-290 
120.203	-0.0508	0.0254	1.0034	-1.0986	1.3428	0.4883	-0.2692	5.5261	79.1675	39.9200	190	31	-290 
120.218	-0.0566	0.0278	1.0088	-0.4883	1.6479	0.0000	-0.2582	5.5316	79.1620	39.9200	190	30	-290 
120.218	-0.0562	0.0400	1.0020	-1.1597	1.6479	-0.2441	-0.2527	5.5316	79.1235	39.9200	188	31	-289 
120.218	-0.0645	0.0313	1.0210	-1.7700	2.5635	0.4272	-0.2527	5.5536	79.0961	39.9200	189	29	-287 
120.234	-0.0732	0.0332	1.0342	-2.3193	2.5024	0.1221	-0.2747	5.5865	79.0906	39.9200	188	27	-287 
120.250	-0.0776	0.0093	1.0405	-1.0986	2.1973	1.0376	-0.2856	5.6140	79.1071	39.9300	191	26	-288 
120.265	-0.0801	0.0005	1.0425	-0.9766	1.1597	0.4883	-0.2966	5.6305	79.1400	39.9300	188	26	-286 
120.297	-0.0679	0.0117	1.0317	0.0610	0.1221	-0.1221	-0.2966	5.6140	79.1620	39.9300	190	26	-285 
120.312	-0.0620	0.0229	1.0200	0.0000	-0.2441	0.0000	-0.2802	5.5865	79.1620	39.9200	190	28	-285 
120.375	-0.0518	0.0454	1.0000	0.0000	0.0000	0.3052	-0.2472	5.5536	79.1455	39.9300	190	27	-284 
120.390	-0.0479	0.0474	0.9966	-0.3662	0.9766	0.7935	-0.2142	5.5316	79.1400	39.9300	190	25	-284 
120.390	-0.0527	0.0332	1.0049	-0.7935	2.0752	1.4648	-0.1923	5.5371	79.1510	39.9300	191	26	-285 
120.390	-0.0591	0.0181	1.0142	-1.2817	2.4414	1.1597	-0.1978	5.5591	79.1840	39.9300	191	25	-286 
120.406	-0.0625	0.0068	1.0215	-0.5493	1.8921	0.9155	-0.1978	5.5756	79.2224	39.9200	189	25	-285 
120.437	-0.0664	0.0166	1.0195	-1.0986	1.8311	-0.0610	-0.2087	5.5865	79.2444	39.9200	190	25	-284 
120.453	-0.0742	0.0303	1.0322	-0.2441	1.8311	0.2441	-0.1923	5.6085	79.2444	39.9400	192	24	-283 
120.468	-0.0732	0.0435	1.0288	-0.7935	1.1597	-0.0610	-0.1758	5.6140	79.2334	39.9200	192	24	-283 
120.484	-0.0708	0.0391	1.0239	-0.8545	1.3428	0.9766	-0.1593	5.6195	79.2279	39.9100	193	26	-285 
120.515	-0.0693	0.0298	1.0273	-1.1597	0.9766	1.3428	-0.1538	5.6250	79.2389	39.9200	189	29	-285 
120.531	-0.0659	0.0176	1.0234	-1.0986	0.4883	0.9155	-0.1648	5.6140	79.2554	39.9300	189	28	-286 
120.547	-0.0596	0.0156	1.0137	-0.7324	0.1221	0.4272	-0.1648	5.5920	79.2664	39.9300	190	28	-285 
120.625	-0.0581	0.0195	1.0137	-1.1597	0.8545	0.0610	-0.1703	5.5756	79.2609	39.9100	189	30	-286 
120.640	-0.0601	0.0200	1.0171	-1.2207	0.8545	0.1221	-0.1813	5.5646	79.2499	39.9200	189	32	-287 
120.640	-0.0674	0.0293	1.0273	-0.6104	1.0376	0.4272	-0.1758	5.5591	79.2279	39.9300	189	30	-289 
120.640	-0.0669	0.0259	1.0288	0.3052	0.6714	1.1597	-0.1538	5.5536	79.2334	39.9200	190	31	-290 
120.656	-0.0659	0.0449	1.0200	-0.3662	0.0610	0.4883	-0.1263	5.5371	79.2114	39.9200	190	30	-289 
120.672	-0.0635	0.0454	1.0186	-0.4883	0.0000	1.0376	-0.0989	5.5096	79.1949	39.9300	189	29	-288 
120.687	-0.0635	0.0391	1.0215	-0.9766	0.3052	1.1597	-0.0879	5.4932	79.1895	39.9200	189	28	-288 
120.703	-0.0576	0.0356	1.0151	-0.8545	0.4883	1.5869	-0.0769	5.4767	79.1949	39.9200	187	29	-289 
120.734	-0.0532	0.0234	1.0132	-1.2817	0.7935	1.2817	-0.0824	5.4657	79.2114	39.9300	190	27	-288 
120.812	-0.0527	0.0210	1.0112	-1.7090	0.8545	1.0986	-0.0934	5.4492	79.2389	39.9300	190	25	-288 
120.828	-0.0601	0.0078	1.0239	-1.2207	1.2817	0.6714	-0.1099	5.4492	79.2719	39.9200	189	28	-289 
120.828	-0.0591	0.0078	1.0234	-0.4272	0.6104	0.4272	-0.1154	5.4437	79.2883	39.9300	188	28	-288 
120.828	-0.0576	0.0225	1.0146	-0.0610	0.1831	-0.4883	-0.1099	5.4218	79.2883	39.9200	190	28	-287 
120.828	-0.0596	0.0317	1.0107	0.1831	0.6714	-0.6714	-0.0879	5.4053	79.2554	39.9300	190	31	-287 
120.843	-0.0620	0.0405	1.0244	0.0000	1.0986	-0.2441	-0.0604	5.4053	79.2224	39.9300	191	28	-287 
120.875	-0.0615	0.0459	1.0195	-0.9155	0.5493	-0.1831	-0.0439	5.3943	79.1949	39.9400	190	27	-287 
120.890	-0.0566	0.0444	1.0107	-1.6479	1.0986	0.3052	-0.0385	5.3833	79.1675	39.9200	190	28	-287 
120.906	-0.0601	0.0327	1.0215	-1.5259	1.7700	0.7935	-0.0439	5.3888	79.1565	39.9200	188	28	-286 
120.922	-0.0640	0.0210	1.0288	-1.1597	1.2207	0.3662	-0.0549	5.3943	79.1730	39.9300	188	26	-287 
121.015	-0.0635	0.0210	1.0269	-0.9155	0.6714	0.2441	-0.0604	5.3943	79.1840	39.9200	188	26	-286 
121.031	-0.0591	0.0200	1.0195	-0.1831	0.5493	0.3052	-0.0494	5.3778	79.1895	39.9200	189	27	-286 
121.031	-0.0571	0.0381	1.0146	-0.5493	0.2441	0.0000	-0.0385	5.3613	79.1895	39.9200	188	24	-288 
121.031	-0.0566	0.0415	1.0166	-0.1831	0.7935	0.6714	-0.0110	5.3503	79.1785	39.9200	188	28	-288 
121.031	-0.0547	0.0381	1.0132	-0.8545	0.9766	0.7324	0.0000	5.3394	79.1675	39.9300	190	29	-286 
121.047	-0.0557	0.0205	1.0117	-1.4648	1.5259	0.7324	0.0000	5.3339	79.1785	39.9300	190	26	-287 
121.062	-0.0581	0.0205	1.0161	-1.4648	1.6479	0.3662	-0.0165	5.3448	79.1949	39.9300	189	25	-287 
121.093	-0.0596	0.0181	1.0225	-0.9155	1.4038	0.0610	-0.0220	5.3503	79.2114	39.9300	190	25	-287 
121.109	-0.0591	0.0308	1.0176	-0.5493	1.0986	-0.3662	-0.0220	5.3503	79.2059	39.9100	189	27	-288 
121.125	-0.0605	0.0415	1.0176	-1.2207	1.5869	-0.6714	-0.0165	5.3503	79.1730	39.9400	190	28	-288 
121.187	-0.0625	0.0352	1.0215	-1.1597	1.6479	0.1831	-0.0110	5.3613	79.1510	39.9200	189	26	-287 
121.203	-0.0654	0.0264	1.0283	-0.3662	1.4648	0.7324	0.0000	5.3723	79.1510	39.9100	191	27	-286 
121.203	-0.0669	0.0244	1.0298	-0.7935	0.8545	0.1221	0.0000	5.3723	79.1565	39.9200	189	27	-288 
121.203	-0.0630	0.0249	1.0229	-0.6104	0.4272	0.4272	0.0000	5.3613	79.1510	39.9400	188	26	-288 
121.234	-0.0605	0.0332	1.0200	-0.7935	0.3052	0.3052	0.0055	5.3503	79.1510	39.9300	189	26	-288 
121.250	-0.0532	0.0293	1.0083	-0.4883	0.7324	0.8545	0.0165	5.3284	79.1675	39.9200	190	25	-287 
121.265	-0.0562	0.0259	1.0151	-0.8545	1.0376	0.5493	0.0220	5.3229	79.1840	39.9200	189	24	-286 
121.281	-0.0537	0.0313	1.0132	-0.1831	0.7935	0.1221	0.0275	5.3119	79.1949	39.9300	190	25	-285 
121.312	-0.0542	0.0371	1.0127	-0.6714	1.0986	0.0000	0.0439	5.3064	79.1895	39.9200	191	26	-287 
121.328	-0.0610	0.0488	1.0181	-1.1597	1.5869	0.1831	0.0494	5.3064	79.1620	39.9200	189	28	-287 
121.343	-0.0620	0.0337	1.0249	-0.1221	1.5869	1.1597	0.0659	5.3174	79.1620	39.9200	190	26	-286 
121.437	-0.0581	0.0264	1.0200	-1.5869	1.0376	0.3052	0.0659	5.3174	79.1840	39.9200	191	25	-286 
121.453	-0.0562	0.0308	1.0166	-1.5259	1.2817	0.0610	0.0549	5.3174	79.1840	39.9200	188	25	-287 
121.453	-0.0566	0.0166	1.0205	-0.9766	1.5259	0.0000	0.0494	5.3174	79.1895	39.9300	187	26	-286 
121.453	-0.0532	0.0308	1.0117	-1.0986	1.1597	-0.4883	0.0439	5.3174	79.1785	39.9300	187	29	-286 
121.453	-0.0557	0.0352	1.0112	-0.7324	1.8311	-0.1221	0.0494	5.3174	79.1455	39.9100	188	30	-287 
121.468	-0.0610	0.0396	1.0234	-0.9766	1.8921	0.0000	0.0549	5.3339	79.1235	39.9300	191	29	-285 
121.484	-0.0698	0.0317	1.0317	-1.0376	2.0142	0.9155	0.0604	5.3503	79.1125	39.9200	193	29	-284 
121.500	-0.0645	0.0332	1.0298	-1.7090	1.2817	0.1831	0.0494	5.3613	79.1125	39.9400	191	27	-284 
121.536	-0.0645	0.0303	1.0317	-0.2441	0.4272	0.0000	0.0549	5.3558	79.1071	39.9200	191	26	-286 
121.541	-0.0596	0.0396	1.0171	0.2441	0.0610	0.3662	0.0824	5.3339	79.0961	39.9200	190	26	-287 
121.555	-0.0527	0.0396	1.0093	-0.5493	0.2441	0.5493	0.0989	5.3119	79.0906	39.9100	189	27	-287 
121.602	-0.0562	0.0269	1.0205	-0.6714	1.2207	1.4648	0.1099	5.3064	79.1071	39.9300	190	26	-290 
121.602	-0.0532	0.0181	1.0161	-0.6714	0.4272	0.6714	0.1099	5.2954	79.1455	39.9200	191	24	-290 
121.633	-0.0518	0.0239	1.0112	-0.7324	0.7324	0.0610	0.1099	5.2789	79.1675	39.9200	190	22	-290 
121.649	-0.0571	0.0347	1.0156	-1.0376	1.4648	-0.2441	0.1099	5.2734	79.1785	39.9300	191	22	-288 
121.664	-0.0601	0.0396	1.0200	-0.6714	1.3428	-0.0610	0.1154	5.2789	79.1730	39.9400	191	24	-287 
121.680	-0.0610	0.0430	1.0254	-1.4648	1.1597	-0.1221	0.1263	5.2844	79.1565	39.9300	190	26	-287 
121.711	-0.0586	0.0435	1.0171	-1.6479	1.2207	0.0610	0.1208	5.2844	79.1400	39.9400	189	25	-289 
121.727	-0.0610	0.0278	1.0220	-1.5869	1.4038	0.4883	0.1099	5.2899	79.1345	39.9300	189	27	-288 
121.742	-0.0615	0.0239	1.0269	-1.1597	1.2207	0.6104	0.1044	5.2899	79.1400	39.9400	190	26	-287 
121.821	-0.0581	0.0259	1.0249	-0.9766	0.6714	0.0000	0.0989	5.2844	79.1565	39.9300	191	26	-288 
121.836	-0.0566	0.0308	1.0181	-1.4038	0.6104	-0.3052	0.0934	5.2734	79.1510	39.9300	189	25	-284 
121.836	-0.0537	0.0371	1.0146	-1.0376	1.0376	0.1831	0.0934	5.2625	79.1400	39.9400	186	26	-286 
121.836	-0.0532	0.0347	1.0127	-1.0376	1.2207	0.6714	0.0934	5.2570	79.1290	39.9300	188	27	-287 
121.852	-0.0566	0.0327	1.0205	-1.6479	1.2207	0.0610	0.0934	5.2570	79.1345	39.9200	188	26	-286 
121.867	-0.0542	0.0356	1.0151	-1.0986	1.2817	0.2441	0.0879	5.2570	79.1290	39.9300	188	24	-287 
121.883	-0.0552	0.0288	1.0142	-0.9155	1.3428	0.4883	0.0879	5.2570	79.1400	39.9300	188	25	-289 
121.899	-0.0552	0.0293	1.0146	-1.0986	1.6479	0.3662	0.0879	5.2625	79.1400	39.9200	190	28	-290 
121.930	-0.0605	0.0278	1.0229	-1.1597	1.5259	0.0000	0.0824	5.2679	79.1345	39.9000	189	27	-290 
122.008	-0.0601	0.0356	1.0210	-1.2817	1.5259	-0.2441	0.0769	5.2789	79.1235	39.9200	188	25	-291 
122.024	-0.0615	0.0410	1.0200	-1.0376	1.4648	0.1831	0.0824	5.2844	79.1071	39.9300	188	26	-290 
122.024	-0.0610	0.0352	1.0195	-1.6479	1.5869	0.4272	0.0769	5.2899	79.1071	39.9400	187	24	-289 
122.024	-0.0601	0.0293	1.0220	-1.1597	1.1597	0.6104	0.0659	5.2954	79.1125	39.9100	190	24	-288 
122.024	-0.0557	0.0239	1.0195	-1.3428	1.1597	0.2441	0.0604	5.2954	79.1345	39.9100	190	24	-286 
122.039	-0.0591	0.0298	1.0225	-1.2817	1.1597	0.0000	0.0494	5.2899	79.1345	39.9200	188	25	-285 
122.071	-0.0576	0.0259	1.0181	-0.7935	1.0986	0.1831	0.0494	5.2899	79.1400	39.9100	188	24	-286 
122.086	-0.0596	0.0269	1.0229	-1.2817	1.1597	-0.3052	0.0385	5.2899	79.1510	39.9300	190	23	-288 
122.102	-0.0605	0.0278	1.0249	-0.7324	0.8545	-0.1221	0.0385	5.2899	79.1565	39.9300	191	23	-289 
122.133	-0.0596	0.0376	1.0166	-0.4272	0.3662	-0.0610	0.0549	5.2789	79.1620	39.9200	190	22	-287 
122.149	-0.0591	0.0371	1.0210	-0.6104	0.5493	0.3052	0.0659	5.2625	79.1620	39.9200	190	24	-285 
122.164	-0.0562	0.0308	1.0171	-0.6104	0.4883	0.6104	0.0769	5.2460	79.1675	39.9300	186	23	-286 
122.180	-0.0522	0.0327	1.0132	-0.6714	0.2441	0.2441	0.0879	5.2295	79.1785	39.9300	187	24	-288 
122.269	-0.0503	0.0352	1.0103	-1.5259	0.8545	-0.3052	0.0879	5.2130	79.1675	39.9200	188	27	-287 
122.269	-0.0522	0.0308	1.0137	-2.3804	1.5259	0.0610	0.0659	5.2075	79.1455	39.9300	190	29	-287 
122.269	-0.0571	0.0229	1.0259	-1.1597	1.2207	0.2441	0.0494	5.2130	79.1400	39.9300	189	29	-285 
122.269	-0.0562	0.0283	1.0176	-0.7935	0.6104	0.0000	0.0494	5.2075	79.1345	39.9400	190	25	-283 
122.285	-0.0557	0.0352	1.0156	-0.9766	0.9155	-0.1831	0.0549	5.1965	79.1290	39.9400	189	25	-284 
122.300	-0.0576	0.0303	1.0215	-1.0986	1.4038	0.0000	0.0549	5.1965	79.1290	39.9300	188	23	-286 
122.332	-0.0562	0.0229	1.0234	-1.1597	0.9766	-0.4272	0.0494	5.1965	79.1400	39.9400	189	23	-285 
122.347	-0.0537	0.0278	1.0195	-0.7935	0.9766	-0.1221	0.0439	5.1910	79.1455	39.9500	186	22	-286 
122.363	-0.0527	0.0288	1.0142	-0.9766	1.2207	-0.0610	0.0494	5.1855	79.1620	39.9500	188	22	-288 
122.425	-0.0527	0.0386	1.0127	-1.0376	1.3428	-0.0610	0.0494	5.1855	79.1675	39.9300	190	21	-288 
122.441	-0.0566	0.0430	1.0176	-1.2207	1.3428	0.1221	0.0604	5.1910	79.1730	39.9300	192	21	-287 
122.441	-0.0571	0.0464	1.0122	-1.6479	1.4648	0.2441	0.0659	5.1910	79.1730	39.9400	191	21	-287 
122.441	-0.0605	0.0400	1.0190	-1.8311	2.0142	0.4272	0.0549	5.2075	79.1785	39.9300	188	24	-289 
122.472	-0.0591	0.0234	1.0229	-1.9531	1.6479	0.6714	0.0385	5.2185	79.1949	39.9200	186	23	-289 
122.488	-0.0581	0.0254	1.0239	-1.8311	1.4038	0.2441	0.0165	5.2240	79.2114	39.9300	189	24	-289 
122.503	-0.0566	0.0264	1.0195	-1.5259	0.9155	0.0000	0.0055	5.2240	79.2279	39.9400	189	25	-289 
122.519	-0.0566	0.0249	1.0137	-1.2207	1.2817	0.0000	0.0000	5.2185	79.2334	39.9200	190	23	-288 
122.597	-0.0537	0.0337	1.0166	-1.7090	1.0986	-0.7324	-0.0165	5.2185	79.2279	39.9200	188	24	-287 
122.613	-0.0547	0.0430	1.0156	-1.0376	1.4038	-0.1831	-0.0110	5.2185	79.2114	39.9300	187	24	-289 
122.613	-0.0596	0.0425	1.0229	-2.2583	1.8921	0.0000	-0.0165	5.2295	79.1949	39.9400	187	26	-288 
122.613	-0.0586	0.0386	1.0190	-2.0142	1.8921	0.7324	-0.0275	5.2405	79.1949	39.9300	188	23	-287 
122.628	-0.0586	0.0190	1.0195	-1.9531	1.9531	0.8545	-0.0439	5.2570	79.2169	39.9300	189	26	-286 
122.644	-0.0596	0.0156	1.0244	-1.7700	1.7090	0.4883	-0.0714	5.2679	79.2334	39.9300	189	27	-286 
122.660	-0.0576	0.0181	1.0195	-0.9155	1.0376	0.0610	-0.0824	5.2679	79.2444	39.9500	187	27	-286 
122.691	-0.0566	0.0273	1.0176	-0.9766	1.3428	-0.2441	-0.0824	5.2679	79.2389	39.9300	187	27	-287 
122.707	-0.0547	0.0371	1.0112	-1.4648	1.6479	-0.2441	-0.0879	5.2679	79.2224	39.9300	188	27	-287 
122.722	-0.0591	0.0322	1.0200	-1.7090	1.9531	0.0000	-0.0934	5.2844	79.2114	39.9300	189	27	-287 
122.738	-0.0605	0.0371	1.0225	-1.4038	1.6479	0.1831	-0.1044	5.2954	79.1949	39.9400	189	28	-288 
122.769	-0.0591	0.0249	1.0215	-0.6714	1.7090	0.9155	-0.0989	5.3064	79.2114	39.9400	191	24	-288 
122.832	-0.0601	0.0278	1.0229	-1.3428	1.0986	0.0610	-0.0989	5.3064	79.2279	39.9500	190	25	-287 
122.847	-0.0586	0.0254	1.0205	-1.2207	1.3428	0.1221	-0.1099	5.3064	79.2224	39.9500	188	26	-286 
122.847	-0.0571	0.0269	1.0186	-1.2817	1.4648	0.0000	-0.1099	5.3119	79.2334	39.9400	187	25	-285 
122.847	-0.0547	0.0264	1.0098	-1.4648	1.4038	-0.0610	-0.1208	5.3119	79.2334	39.9400	188	23	-285 
122.863	-0.0610	0.0273	1.0239	-0.6714	1.5259	-0.0610	-0.1208	5.3174	79.2389	39.9400	189	25	-285 
122.878	-0.0635	0.0347	1.0244	-0.7324	1.4648	-0.2441	-0.1099	5.3284	79.2224	39.9500	190	28	-285 
122.910	-0.0601	0.0405	1.0215	-1.8311	1.2207	0.2441	-0.1099	5.3284	79.2004	39.9500	189	28	-285 
122.925	-0.0601	0.0439	1.0176	-2.0752	1.4038	0.7324	-0.1154	5.3339	79.1785	39.9400	188	30	-285 
122.941	-0.0635	0.0210	1.0269	-1.7700	1.8311	1.2207	-0.1263	5.3394	79.1840	39.9500	190	30	-284 
123.003	-0.0630	0.0200	1.0317	-1.7700	0.7324	0.5493	-0.1483	5.3394	79.1949	39.9400	188	27	-287 
123.019	-0.0669	0.0142	1.0337	-0.5493	0.7324	0.4272	-0.1538	5.3339	79.2114	39.9500	187	26	-287 
123.019	-0.0508	0.0146	1.0176	0.0000	0.0610	-0.0610	-0.1428	5.3064	79.2279	39.9300	190	25	-284 
123.019	-0.0532	0.0195	1.0122	-0.3662	0.5493	-0.1221	-0.1318	5.2954	79.2389	39.9400	190	24	-283 
123.050	-0.0552	0.0298	1.0156	-0.4883	0.9766	-0.0610	-0.1208	5.2789	79.2389	39.9600	188	25	-285 
123.066	-0.0532	0.0327	1.0166	-0.6104	0.6104	-0.3052	-0.1154	5.2734	79.2389	39.9500	185	25	-286 
123.082	-0.0596	0.0420	1.0190	-1.0986	0.9766	-0.4883	-0.1099	5.2625	79.2114	39.9500	185	27	-287 
123.097	-0.0562	0.0449	1.0137	-0.6714	1.5259	0.3052	-0.0879	5.2625	79.1840	39.9400	186	26	-288 
123.128	-0.0605	0.0391	1.0234	-0.9766	1.5259	0.4272	-0.0769	5.2679	79.1730	39.9400	188	25	-287 
123.144	-0.0601	0.0225	1.0234	-1.7700	1.5259	0.3662	-0.0879	5.2734	79.1840	39.9400	189	25	-287 
123.160	-0.0601	0.0259	1.0205	-1.7090	1.3428	0.0000	-0.1044	5.2789	79.1895	39.9600	189	25	-287 
123.175	-0.0552	0.0117	1.0166	-0.4272	1.4648	0.7935	-0.1044	5.2844	79.2114	39.9500	190	26	-285 
123.269	-0.0562	0.0166	1.0195	-0.6104	1.2817	0.0000	-0.0989	5.2844	79.2334	39.9400	191	25	-286 
123.269	-0.0566	0.0322	1.0171	-0.9155	1.1597	-0.3662	-0.0989	5.2789	79.2279	39.9500	191	26	-286 
123.269	-0.0576	0.0371	1.0205	-0.6714	1.4038	0.0000	-0.0934	5.2789	79.2169	39.9500	192	27	-287 
123.269	-0.0610	0.0391	1.0269	-0.4272	1.0376	0.6714	-0.0769	5.2844	79.2059	39.9300	192	27	-289 
123.285	-0.0620	0.0303	1.0215	-0.4883	1.2207	1.2207	-0.0604	5.2844	79.2114	39.9400	191	28	-289 
123.300	-0.0576	0.0200	1.0205	-0.1221	1.0376	1.2817	-0.0439	5.2844	79.2279	39.9600	187	29	-288 
123.316	-0.0557	0.0205	1.0186	-0.9766	0.9766	0.5493	-0.0439	5.2789	79.2389	39.9500	185	28	-287